LabVIEW Measurement	
Writer_Version	2
Reader_Version	2
Separator	Tab
Decimal_Separator	,
Multi_Headings	Yes
X_Columns	No
Time_Pref	Relative
Operator	admin
Date	2025/10/17
Time	11:12:08,8859438896179199219
***End_of_Header***	
	
Channels	1	
Samples	1000	
Date	2025/10/17	
Time	11:12:08,8859438896179199219	
X_Dimension	Time	
X0	0,0000000000000000E+0	
Delta_X	1,000000	
***End_of_Header***		
X_Value	Untitled	Comment
	0,005864
	0,005268
	0,005724
	0,005488
	0,005539
	0,005377
	0,005677
	0,005764
	0,005583
	0,005756
	0,005499
	0,005320
	0,005154
	0,005757
	0,005387
	0,005399
	0,005612
	0,005606
	0,005344
	0,005448
	0,005740
	0,005581
	0,005838
	0,005574
	0,005643
	0,005696
	0,005379
	0,005499
	0,005490
	0,005621
	0,005539
	0,005395
	0,005403
	0,005482
	0,005756
	0,005724
	0,005714
	0,005471
	0,005372
	0,005727
	0,005508
	0,005908
	0,005727
	0,005419
	0,005455
	0,005418
	0,005703
	0,005533
	0,005524
	0,005450
	0,005575
	0,005408
	0,005385
	0,005890
	0,006001
	0,005459
	0,005715
	0,005530
	0,005782
	0,005828
	0,005663
	0,005305
	0,005476
	0,005740
	0,005537
	0,005763
	0,005576
	0,005688
	0,005862
	0,005860
	0,005633
	0,005890
	0,005427
	0,005726
	0,005616
	0,005628
	0,005788
	0,005563
	0,005658
	0,005467
	0,005714
	0,005509
	0,005483
	0,005616
	0,005555
	0,005515
	0,005595
	0,005767
	0,005705
	0,005407
	0,005480
	0,005955
	0,005741
	0,005762
	0,005759
	0,005491
	0,005800
	0,005601
	0,005758
	0,005892
	0,006066
	0,005861
	0,005353
	0,005425
	0,005833
	0,005855
	0,005680
	0,005621
	0,005305
	0,005814
	0,005636
	0,005663
	0,005670
	0,005649
	0,005679
	0,005703
	0,005650
	0,005978
	0,005622
	0,005684
	0,006015
	0,005858
	0,006091
	0,005704
	0,005577
	0,005927
	0,005231
	0,005481
	0,005731
	0,005346
	0,005633
	0,005448
	0,005810
	0,005870
	0,005543
	0,005372
	0,005640
	0,005783
	0,005687
	0,005617
	0,005715
	0,005976
	0,005533
	0,005671
	0,005318
	0,005442
	0,005669
	0,005627
	0,005642
	0,005717
	0,005701
	0,005478
	0,006057
	0,005704
	0,005635
	0,005610
	0,006128
	0,005635
	0,005781
	0,005749
	0,005755
	0,005570
	0,005629
	0,005711
	0,005581
	0,005552
	0,005715
	0,005545
	0,005722
	0,005830
	0,005616
	0,005627
	0,005659
	0,005669
	0,005652
	0,005679
	0,005639
	0,005710
	0,005875
	0,005684
	0,005675
	0,005641
	0,005438
	0,005575
	0,005677
	0,005740
	0,005699
	0,005640
	0,005740
	0,005706
	0,005814
	0,005647
	0,005698
	0,005680
	0,005616
	0,005549
	0,005687
	0,005712
	0,005727
	0,005807
	0,005680
	0,005600
	0,005730
	0,005684
	0,005606
	0,005677
	0,005660
	0,005778
	0,005710
	0,005206
	0,005674
	0,005579
	0,005697
	0,005339
	0,005599
	0,005538
	0,005701
	0,005800
	0,005678
	0,005703
	0,005719
	0,005638
	0,005698
	0,005639
	0,005639
	0,005649
	0,005600
	0,005721
	0,005732
	0,005719
	0,005616
	0,005630
	0,005604
	0,005614
	0,005631
	0,005614
	0,005640
	0,005682
	0,006111
	0,005676
	0,005642
	0,005559
	0,005727
	0,005444
	0,005638
	0,005604
	0,005611
	0,005648
	0,005919
	0,005883
	0,005615
	0,005680
	0,005572
	0,005610
	0,005615
	0,005637
	0,005355
	0,005625
	0,005598
	0,005556
	0,005630
	0,005562
	0,005612
	0,005642
	0,005629
	0,005707
	0,005556
	0,005575
	0,005614
	0,005697
	0,005616
	0,005610
	0,005636
	0,005640
	0,005559
	0,005600
	0,005574
	0,005569
	0,005537
	0,005586
	0,005596
	0,005619
	0,005575
	0,005759
	0,005634
	0,005574
	0,005640
	0,005626
	0,005562
	0,005556
	0,005627
	0,005599
	0,005603
	0,005579
	0,005581
	0,005466
	0,005622
	0,005595
	0,005550
	0,005558
	0,005622
	0,005574
	0,005550
	0,005607
	0,005490
	0,005545
	0,005484
	0,005508
	0,005555
	0,005688
	0,005532
	0,005488
	0,005576
	0,005566
	0,005524
	0,005530
	0,005579
	0,005945
	0,005570
	0,005593
	0,005587
	0,005532
	0,005530
	0,005630
	0,005548
	0,005614
	0,005703
	0,005525
	0,005546
	0,005577
	0,005541
	0,005474
	0,005534
	0,005560
	0,005567
	0,005557
	0,005530
	0,005541
	0,005534
	0,005507
	0,005472
	0,005543
	0,005510
	0,005586
	0,005558
	0,005495
	0,005493
	0,005546
	0,005499
	0,005486
	0,005540
	0,005556
	0,005472
	0,005503
	0,005517
	0,005513
	0,005502
	0,005487
	0,005544
	0,005453
	0,005534
	0,005545
	0,005504
	0,005471
	0,005477
	0,005516
	0,005518
	0,005509
	0,005465
	0,005544
	0,005524
	0,005513
	0,005516
	0,005532
	0,005463
	0,005499
	0,005513
	0,005497
	0,005545
	0,005511
	0,005540
	0,005577
	0,005505
	0,005497
	0,005465
	0,005545
	0,005509
	0,005518
	0,005546
	0,005518
	0,005495
	0,005531
	0,005530
	0,005545
	0,005476
	0,005516
	0,005589
	0,005520
	0,005509
	0,005558
	0,005623
	0,005529
	0,005537
	0,005539
	0,005468
	0,005530
	0,005497
	0,005545
	0,005553
	0,005434
	0,005526
	0,005588
	0,005565
	0,005451
	0,005531
	0,005500
	0,005560
	0,005548
	0,005568
	0,005511
	0,005547
	0,005521
	0,005604
	0,005556
	0,005504
	0,005601
	0,005587
	0,005548
	0,005919
	0,005528
	0,005539
	0,005480
	0,005547
	0,005570
	0,005524
	0,005573
	0,005526
	0,005583
	0,005648
	0,005556
	0,005554
	0,005547
	0,005520
	0,005556
	0,005585
	0,005610
	0,005589
	0,005631
	0,005611
	0,005607
	0,005564
	0,005572
	0,005572
	0,005550
	0,005629
	0,005648
	0,005464
	0,005598
	0,005600
	0,005654
	0,005629
	0,005600
	0,005670
	0,005606
	0,005591
	0,005541
	0,005601
	0,005569
	0,005612
	0,005541
	0,005659
	0,005600
	0,005625
	0,005663
	0,005669
	0,005626
	0,005661
	0,005602
	0,005674
	0,005608
	0,005647
	0,005568
	0,005696
	0,005618
	0,005634
	0,005593
	0,005674
	0,005583
	0,005637
	0,005638
	0,005665
	0,005587
	0,005644
	0,005652
	0,005578
	0,005658
	0,005676
	0,005652
	0,005650
	0,005600
	0,005617
	0,005816
	0,005624
	0,005651
	0,005640
	0,005708
	0,005652
	0,005680
	0,005613
	0,005695
	0,005644
	0,005666
	0,005686
	0,005677
	0,005610
	0,005615
	0,005659
	0,005688
	0,005634
	0,005693
	0,005686
	0,005725
	0,005685
	0,005638
	0,005634
	0,005621
	0,005709
	0,005686
	0,005778
	0,005620
	0,005671
	0,005633
	0,005629
	0,005693
	0,005673
	0,005577
	0,005628
	0,005671
	0,005686
	0,005621
	0,005740
	0,005634
	0,005701
	0,005638
	0,005661
	0,005682
	0,005629
	0,005586
	0,005614
	0,005724
	0,005631
	0,005672
	0,005643
	0,005648
	0,005666
	0,005601
	0,005667
	0,005620
	0,005589
	0,005576
	0,005662
	0,005599
	0,005621
	0,005598
	0,005649
	0,005577
	0,005598
	0,005571
	0,005632
	0,005604
	0,005609
	0,005634
	0,005601
	0,005549
	0,005656
	0,005598
	0,005606
	0,005629
	0,005625
	0,005637
	0,005672
	0,005551
	0,005631
	0,005602
	0,005659
	0,005638
	0,005616
	0,005594
	0,005615
	0,005604
	0,005631
	0,005613
	0,005595
	0,005569
	0,005641
	0,005650
	0,005581
	0,005617
	0,005598
	0,005594
	0,005615
	0,005598
	0,005582
	0,005632
	0,005621
	0,005640
	0,005585
	0,005578
	0,005647
	0,005599
	0,005627
	0,005477
	0,005646
	0,005603
	0,005610
	0,005560
	0,005574
	0,005618
	0,005560
	0,005571
	0,005593
	0,005648
	0,005620
	0,005629
	0,005578
	0,005621
	0,005646
	0,005631
	0,005640
	0,005633
	0,005619
	0,005567
	0,005711
	0,005547
	0,005623
	0,005629
	0,005653
	0,005610
	0,005657
	0,005681
	0,005619
	0,005594
	0,005583
	0,005513
	0,005564
	0,005585
	0,005569
	0,005574
	0,005549
	0,005619
	0,005591
	0,005572
	0,005456
	0,005614
	0,005597
	0,005582
	0,005591
	0,005549
	0,005590
	0,005430
	0,005554
	0,005572
	0,005547
	0,005627
	0,005593
	0,005598
	0,005663
	0,005528
	0,005550
	0,005540
	0,005604
	0,005530
	0,005446
	0,005534
	0,005550
	0,005580
	0,005519
	0,005611
	0,005555
	0,005524
	0,005526
	0,005539
	0,005606
	0,005528
	0,005583
	0,005596
	0,005472
	0,005574
	0,005581
	0,005530
	0,005566
	0,005536
	0,005536
	0,005604
	0,005577
	0,005584
	0,005542
	0,005565
	0,005465
	0,005570
	0,005581
	0,005587
	0,005611
	0,005574
	0,005541
	0,005590
	0,005561
	0,005598
	0,005571
	0,005577
	0,005598
	0,005535
	0,005598
	0,005583
	0,005583
	0,005589
	0,005479
	0,005553
	0,005636
	0,005518
	0,005613
	0,005564
	0,005534
	0,005627
	0,005600
	0,005538
	0,005529
	0,005528
	0,005579
	0,005665
	0,005629
	0,005623
	0,005604
	0,005582
	0,005577
	0,005609
	0,005574
	0,005597
	0,005623
	0,005585
	0,005658
	0,005675
	0,005667
	0,005589
	0,005600
	0,005623
	0,005604
	0,005532
	0,005585
	0,005652
	0,005652
	0,005656
	0,005522
	0,005698
	0,005584
	0,005575
	0,005593
	0,005695
	0,005616
	0,005674
	0,005642
	0,005671
	0,005738
	0,005640
	0,005719
	0,005694
	0,005647
	0,005649
	0,005685
	0,005550
	0,005624
	0,005652
	0,005686
	0,005706
	0,005668
	0,005629
	0,005637
	0,005702
	0,005679
	0,005609
	0,005675
	0,005703
	0,005676
	0,005595
	0,005667
	0,005706
	0,005801
	0,005451
	0,005667
	0,005705
	0,005718
	0,005731
	0,005662
	0,005656
	0,005703
	0,005596
	0,005581
	0,005698
	0,005728
	0,005661
	0,005745
	0,005656
	0,005730
	0,005644
	0,005636
	0,005728
	0,005666
	0,005700
	0,005747
	0,005663
	0,005741
	0,005655
	0,005656
	0,005654
	0,005603
	0,005652
	0,005589
	0,005708
	0,005657
	0,005588
	0,005614
	0,005726
	0,005556
	0,005591
	0,005682
	0,005596
	0,005770
	0,005627
	0,005852
	0,005601
	0,005558
	0,005642
	0,005791
	0,005467
	0,005511
	0,005573
	0,005531
	0,005608
	0,005737
	0,005735
	0,005770
	0,005681
	0,005595
	0,005655
	0,005548
	0,005550
	0,005730
	0,005576
	0,005703
	0,005408
	0,005614
	0,005578
	0,005544
	0,005372
	0,005617
	0,005535
	0,005579
	0,005437
	0,005571
	0,005479
	0,005309
	0,005671
	0,005425
	0,005614
	0,005586
	0,005563
	0,005593
	0,005603
	0,005660
	0,005530
	0,005567
	0,005603
	0,005343
	0,005636
	0,005576
	0,005698
	0,005740
	0,005584
	0,005579
	0,005718
	0,005673
	0,005650
	0,005776
	0,005455
	0,005696
	0,005838
	0,005583
	0,005662
	0,005611
	0,005886
	0,005629
	0,005539
	0,005245
	0,005581
	0,005524
	0,005644
	0,005642
	0,005604
	0,005260
	0,005370
	0,005701
	0,005777
	0,005628
	0,005597
	0,005667
	0,005598
	0,005619
	0,005627
	0,005497
	0,005600
	0,005741
	0,005525
	0,005436
	0,005573
	0,005647
	0,005427
	0,005600
	0,005796
	0,005605
	0,005620
	0,005666
	0,005394
	0,005468
	0,005364
	0,005617
	0,005617
	0,005632
	0,005598
	0,005601
	0,006022
	0,005652
	0,005585
	0,005803
	0,005753
	0,005713
	0,005589
	0,005664
	0,005604
	0,005772
	0,005706
	0,005569
	0,005648
	0,005577
	0,005627
	0,005692
	0,005428
	0,005518
	0,005736
	0,005609
	0,005393
	0,005666
	0,005657
	0,005608
	0,005565
	0,005633
	0,005566
	0,005543
	0,005667
	0,005654
	0,005794
	0,005706
	0,005617
	0,005627
	0,005713
	0,005618
	0,005615
	0,005553
	0,005602
	0,005786
	0,005589
	0,005375
	0,005606
	0,005638
	0,005682
	0,005520
	0,005657
	0,005707
	0,005590
	0,005635
	0,005703
	0,005520
	0,005675
	0,005923
	0,005604
	0,005492
	0,005691
	0,005623
	0,005645
	0,005665
	0,005553
	0,005646
	0,005618
	0,005735
	0,005637
	0,005409
	0,005655
	0,005679
	0,005627
	0,005947
	0,005642

