LabVIEW Measurement	
Writer_Version	2
Reader_Version	2
Separator	Tab
Decimal_Separator	,
Multi_Headings	Yes
X_Columns	No
Time_Pref	Relative
Operator	admin
Date	2025/10/17
Time	11:08:58,5630583763122558594
***End_of_Header***	
	
Channels	1	
Samples	1000	
Date	2025/10/17	
Time	11:08:58,5630583763122558594	
X_Dimension	Time	
X0	0,0000000000000000E+0	
Delta_X	1,000000	
***End_of_Header***		
X_Value	Untitled	Comment
	0,005697
	0,005699
	0,005504
	0,005688
	0,005769
	0,005787
	0,005679
	0,005755
	0,005800
	0,005642
	0,005522
	0,005690
	0,005751
	0,005743
	0,005318
	0,005711
	0,005738
	0,005679
	0,005674
	0,005671
	0,005381
	0,005713
	0,005710
	0,005731
	0,005628
	0,005694
	0,005719
	0,005667
	0,005687
	0,005665
	0,005659
	0,005734
	0,005751
	0,005613
	0,005596
	0,005674
	0,005719
	0,005591
	0,005775
	0,005590
	0,005664
	0,005706
	0,005648
	0,005715
	0,005677
	0,006055
	0,005707
	0,005401
	0,005711
	0,005633
	0,005675
	0,005722
	0,005676
	0,005673
	0,005694
	0,005729
	0,005679
	0,005666
	0,005649
	0,005715
	0,005767
	0,005700
	0,005685
	0,005676
	0,006005
	0,005663
	0,005629
	0,005629
	0,005771
	0,005615
	0,005722
	0,005630
	0,005396
	0,005730
	0,005622
	0,005686
	0,005623
	0,005750
	0,005659
	0,005740
	0,005705
	0,005713
	0,005693
	0,005677
	0,005717
	0,005761
	0,005622
	0,005622
	0,005668
	0,005659
	0,005688
	0,005682
	0,005674
	0,005589
	0,005714
	0,005713
	0,005627
	0,005644
	0,005690
	0,005699
	0,005612
	0,005688
	0,005667
	0,005646
	0,005648
	0,005628
	0,005757
	0,005700
	0,005653
	0,005735
	0,005778
	0,005733
	0,005669
	0,005704
	0,005683
	0,005665
	0,005973
	0,005665
	0,005740
	0,005570
	0,005602
	0,005690
	0,005678
	0,005706
	0,005673
	0,005706
	0,005744
	0,005688
	0,005689
	0,005675
	0,005704
	0,005646
	0,005628
	0,005663
	0,005709
	0,005664
	0,005697
	0,005696
	0,005408
	0,005745
	0,005676
	0,005709
	0,005686
	0,005629
	0,005749
	0,005866
	0,005690
	0,005659
	0,005734
	0,005718
	0,005659
	0,005744
	0,005712
	0,005637
	0,005698
	0,005696
	0,005726
	0,005731
	0,005669
	0,005714
	0,005732
	0,005712
	0,005694
	0,005696
	0,005699
	0,005789
	0,005692
	0,005711
	0,005663
	0,005741
	0,005759
	0,005783
	0,005671
	0,005699
	0,005782
	0,005671
	0,005800
	0,005778
	0,005690
	0,005675
	0,005761
	0,005858
	0,005684
	0,005720
	0,005732
	0,005725
	0,005711
	0,005732
	0,005782
	0,005781
	0,005261
	0,005697
	0,006194
	0,005743
	0,005692
	0,005714
	0,005717
	0,005782
	0,005762
	0,005675
	0,005728
	0,005756
	0,005679
	0,005744
	0,005758
	0,005719
	0,005781
	0,005762
	0,005722
	0,005737
	0,005839
	0,005709
	0,005743
	0,005618
	0,005434
	0,005680
	0,005732
	0,005747
	0,005970
	0,005713
	0,005589
	0,005717
	0,005801
	0,005720
	0,005736
	0,005764
	0,005799
	0,005770
	0,005722
	0,005700
	0,005740
	0,005812
	0,005726
	0,005739
	0,005707
	0,005739
	0,005792
	0,005675
	0,005701
	0,005733
	0,005743
	0,005744
	0,005701
	0,005795
	0,005776
	0,005706
	0,005743
	0,005865
	0,005801
	0,005793
	0,005790
	0,005764
	0,005791
	0,005812
	0,005774
	0,005804
	0,005818
	0,005748
	0,005806
	0,005747
	0,005804
	0,005787
	0,005809
	0,005824
	0,005797
	0,005830
	0,005772
	0,005522
	0,005745
	0,005783
	0,005793
	0,005808
	0,005757
	0,005826
	0,005913
	0,005813
	0,005860
	0,005814
	0,005837
	0,005789
	0,005799
	0,005698
	0,005804
	0,005916
	0,005841
	0,005792
	0,006169
	0,005862
	0,005814
	0,005772
	0,005769
	0,005873
	0,005839
	0,005808
	0,005812
	0,005835
	0,005840
	0,005814
	0,005949
	0,005752
	0,005816
	0,005854
	0,005847
	0,005818
	0,005829
	0,005824
	0,005802
	0,005726
	0,005700
	0,005808
	0,005749
	0,005743
	0,005776
	0,005803
	0,005807
	0,005767
	0,005482
	0,005803
	0,005711
	0,005772
	0,005761
	0,005762
	0,005761
	0,005658
	0,005798
	0,005960
	0,005764
	0,005800
	0,005885
	0,005849
	0,005518
	0,005785
	0,005845
	0,005770
	0,005771
	0,005758
	0,005692
	0,005652
	0,005701
	0,005719
	0,005696
	0,005663
	0,005689
	0,005785
	0,005618
	0,005738
	0,005709
	0,005687
	0,005707
	0,005639
	0,005706
	0,005780
	0,005744
	0,005734
	0,005788
	0,005799
	0,005720
	0,005674
	0,005726
	0,005705
	0,005699
	0,005674
	0,005585
	0,005715
	0,005750
	0,005627
	0,005637
	0,005726
	0,005642
	0,005662
	0,005651
	0,005647
	0,005663
	0,005655
	0,005589
	0,005721
	0,005676
	0,005585
	0,005717
	0,005711
	0,005695
	0,005389
	0,005664
	0,005576
	0,005718
	0,005687
	0,005604
	0,005753
	0,005654
	0,005645
	0,005665
	0,005603
	0,005775
	0,005707
	0,005654
	0,005631
	0,005648
	0,005619
	0,005624
	0,005715
	0,005608
	0,005686
	0,005719
	0,005715
	0,005679
	0,005653
	0,005708
	0,005600
	0,005704
	0,005866
	0,005709
	0,005682
	0,005730
	0,005510
	0,005637
	0,005610
	0,005742
	0,005746
	0,005692
	0,005700
	0,005688
	0,005729
	0,005741
	0,005757
	0,005694
	0,005707
	0,005673
	0,005791
	0,005754
	0,005736
	0,005700
	0,005381
	0,005768
	0,005717
	0,005618
	0,005692
	0,005776
	0,005674
	0,005778
	0,005682
	0,005728
	0,005745
	0,005755
	0,005739
	0,005755
	0,005686
	0,005741
	0,005757
	0,005673
	0,005705
	0,005829
	0,005722
	0,005709
	0,005654
	0,005689
	0,005673
	0,005685
	0,005669
	0,005684
	0,005715
	0,005691
	0,005680
	0,005695
	0,005678
	0,005705
	0,005667
	0,005670
	0,005715
	0,005763
	0,005732
	0,005731
	0,005809
	0,005668
	0,005710
	0,005726
	0,005707
	0,005419
	0,005677
	0,005694
	0,005724
	0,005696
	0,005709
	0,005711
	0,005753
	0,005620
	0,005621
	0,005667
	0,005689
	0,005667
	0,005675
	0,005643
	0,005677
	0,005708
	0,005689
	0,005699
	0,005683
	0,005635
	0,005659
	0,005711
	0,005643
	0,005700
	0,005644
	0,005714
	0,005721
	0,005646
	0,005652
	0,005701
	0,005589
	0,005747
	0,005864
	0,005709
	0,005762
	0,005363
	0,005694
	0,005696
	0,005656
	0,005702
	0,005650
	0,005717
	0,005764
	0,005747
	0,005808
	0,005696
	0,005665
	0,005679
	0,005657
	0,005741
	0,005682
	0,005703
	0,005725
	0,005711
	0,005631
	0,005699
	0,005642
	0,005680
	0,005757
	0,005751
	0,005785
	0,005728
	0,005768
	0,005683
	0,005707
	0,005720
	0,005776
	0,005685
	0,005702
	0,005787
	0,005686
	0,005741
	0,005721
	0,005730
	0,005769
	0,005748
	0,005743
	0,005695
	0,005684
	0,005757
	0,005720
	0,005770
	0,005793
	0,005730
	0,005739
	0,005688
	0,005762
	0,005719
	0,005759
	0,005726
	0,005782
	0,005745
	0,005709
	0,005722
	0,005770
	0,005714
	0,005785
	0,005749
	0,005734
	0,005843
	0,005728
	0,005708
	0,005730
	0,005688
	0,005702
	0,005766
	0,005683
	0,005809
	0,005669
	0,005752
	0,005719
	0,005766
	0,005395
	0,005710
	0,005780
	0,005727
	0,005771
	0,005757
	0,005759
	0,005766
	0,005841
	0,005490
	0,005759
	0,005709
	0,005738
	0,005723
	0,005702
	0,005747
	0,005784
	0,005695
	0,005725
	0,005752
	0,005718
	0,005698
	0,005743
	0,005726
	0,005686
	0,005942
	0,005747
	0,005776
	0,005715
	0,005782
	0,005736
	0,005773
	0,005762
	0,005743
	0,005830
	0,005685
	0,005709
	0,005770
	0,005741
	0,005732
	0,005778
	0,005675
	0,005687
	0,005817
	0,005797
	0,005705
	0,005724
	0,005706
	0,005747
	0,005761
	0,005782
	0,005715
	0,005686
	0,005690
	0,005685
	0,005708
	0,005684
	0,005788
	0,005707
	0,005804
	0,005853
	0,005670
	0,005720
	0,005693
	0,005706
	0,005779
	0,005770
	0,005787
	0,005804
	0,005801
	0,005732
	0,005731
	0,005767
	0,005693
	0,005705
	0,005721
	0,005703
	0,005741
	0,005730
	0,005693
	0,005609
	0,005710
	0,005694
	0,005747
	0,005720
	0,005751
	0,005715
	0,005543
	0,005742
	0,005854
	0,005762
	0,005708
	0,005753
	0,005465
	0,005739
	0,005772
	0,005668
	0,005766
	0,005799
	0,005766
	0,005755
	0,005745
	0,005755
	0,005721
	0,005776
	0,005747
	0,005661
	0,005757
	0,005722
	0,005715
	0,005760
	0,005911
	0,005815
	0,005692
	0,005724
	0,005688
	0,005696
	0,005793
	0,005829
	0,005751
	0,005721
	0,005745
	0,005737
	0,005717
	0,005408
	0,005722
	0,005786
	0,005739
	0,005754
	0,005797
	0,005842
	0,005746
	0,005688
	0,005810
	0,005804
	0,005711
	0,005805
	0,005759
	0,005714
	0,005787
	0,005783
	0,005780
	0,005721
	0,005764
	0,005776
	0,005787
	0,005918
	0,005769
	0,005747
	0,005860
	0,005839
	0,005769
	0,005818
	0,005789
	0,005793
	0,005749
	0,005738
	0,005777
	0,005861
	0,005842
	0,005791
	0,005757
	0,005733
	0,005824
	0,005846
	0,005757
	0,005694
	0,005841
	0,005858
	0,005838
	0,005730
	0,005806
	0,005749
	0,005756
	0,006076
	0,005824
	0,005815
	0,005795
	0,005783
	0,005773
	0,005701
	0,005757
	0,005752
	0,005817
	0,005764
	0,005785
	0,005757
	0,005802
	0,005767
	0,005778
	0,005755
	0,005801
	0,005800
	0,005759
	0,005797
	0,005822
	0,005750
	0,005776
	0,005707
	0,005785
	0,005762
	0,005806
	0,005757
	0,005792
	0,005717
	0,005724
	0,005850
	0,005825
	0,005709
	0,005778
	0,005904
	0,005770
	0,005748
	0,005793
	0,005804
	0,005780
	0,005816
	0,005721
	0,005824
	0,005728
	0,005660
	0,005726
	0,005764
	0,005772
	0,005768
	0,005790
	0,005752
	0,005765
	0,005804
	0,005698
	0,005699
	0,005798
	0,005793
	0,005701
	0,005722
	0,005764
	0,005773
	0,005698
	0,005690
	0,005709
	0,005860
	0,005729
	0,005699
	0,005795
	0,005795
	0,005749
	0,005768
	0,005729
	0,005711
	0,005725
	0,005745
	0,005726
	0,005669
	0,005734
	0,005695
	0,005788
	0,005814
	0,005839
	0,005740
	0,005783
	0,005945
	0,005751
	0,005743
	0,005770
	0,005667
	0,005720
	0,005757
	0,005790
	0,005757
	0,005785
	0,005776
	0,005746
	0,005769
	0,005745
	0,005713
	0,005755
	0,005696
	0,005794
	0,005793
	0,005812
	0,005705
	0,005737
	0,005789
	0,005719
	0,005652
	0,005818
	0,005782
	0,005788
	0,005803
	0,005745
	0,005799
	0,005769
	0,005869
	0,005766
	0,005777
	0,005719
	0,005812
	0,005815
	0,005821
	0,005884
	0,005763
	0,005782
	0,005833
	0,005810
	0,005764
	0,005758
	0,005700
	0,005791
	0,005758
	0,005768
	0,005752
	0,005786
	0,005767
	0,005813
	0,005834
	0,005820
	0,005776
	0,005828
	0,005766
	0,005762
	0,005795
	0,005737
	0,005850
	0,005820
	0,005830
	0,005833
	0,005792
	0,005740
	0,005812
	0,005798
	0,005868
	0,005864
	0,005852
	0,005805
	0,005815
	0,005803
	0,005749
	0,005732
	0,005765
	0,005839
	0,005856
	0,005713
	0,005848
	0,005844
	0,005878
	0,005818
	0,005765
	0,005800
	0,005802
	0,005848
	0,005759
	0,005835
	0,005835
	0,005887
	0,005874
	0,005851
	0,005834
	0,005783
	0,005812
	0,005755
	0,005723
	0,005848
	0,005797
	0,005836
	0,005929
	0,005858
	0,005789
	0,005806
	0,005852
	0,005801
	0,005814
	0,005773
	0,005839
	0,005878
	0,005769
	0,005837
	0,005887
	0,005846
	0,005831
	0,005900
	0,005869
	0,005856
	0,005814
	0,005802
	0,005828
	0,005838
	0,005861
	0,005884
	0,005805
	0,005815
	0,005791
	0,005863
	0,005830
	0,005839
	0,005812
	0,005809
	0,005811
	0,005729
	0,005815
	0,005857
	0,005921
	0,005874
	0,005799
	0,005839
	0,005828
	0,005811
	0,005814
	0,005804
	0,005859
	0,005874
	0,005766

