LabVIEW Measurement	
Writer_Version	2
Reader_Version	2
Separator	Tab
Decimal_Separator	,
Multi_Headings	Yes
X_Columns	No
Time_Pref	Relative
Operator	admin
Date	2025/10/17
Time	11:06:12,4685583114624023438
***End_of_Header***	
	
Channels	1	
Samples	1000	
Date	2025/10/17	
Time	11:06:12,4685583114624023438	
X_Dimension	Time	
X0	0,0000000000000000E+0	
Delta_X	1,000000	
***End_of_Header***		
X_Value	Untitled	Comment
	0,005806
	0,005740
	0,005728
	0,006110
	0,005823
	0,005600
	0,005799
	0,005839
	0,005941
	0,005898
	0,005854
	0,005783
	0,005781
	0,005848
	0,005735
	0,005981
	0,005842
	0,005696
	0,005806
	0,005799
	0,005778
	0,005950
	0,006025
	0,006072
	0,005869
	0,005934
	0,005844
	0,005746
	0,005869
	0,005770
	0,005852
	0,005781
	0,005902
	0,005652
	0,005789
	0,005533
	0,005860
	0,005804
	0,005902
	0,005845
	0,005814
	0,005864
	0,005844
	0,005903
	0,005796
	0,005804
	0,005868
	0,005548
	0,005761
	0,005734
	0,005792
	0,005662
	0,005879
	0,006001
	0,005926
	0,005799
	0,005930
	0,006007
	0,005740
	0,005824
	0,005911
	0,005762
	0,005783
	0,006077
	0,005857
	0,005879
	0,005923
	0,006205
	0,005726
	0,005842
	0,005916
	0,005752
	0,005719
	0,005420
	0,005942
	0,005804
	0,005656
	0,005695
	0,005898
	0,005791
	0,005766
	0,006037
	0,005820
	0,005813
	0,005794
	0,005880
	0,006300
	0,005878
	0,005833
	0,005901
	0,005816
	0,005858
	0,005824
	0,005540
	0,005896
	0,006010
	0,005794
	0,005649
	0,005684
	0,005902
	0,005716
	0,005934
	0,006086
	0,005946
	0,005848
	0,005867
	0,005858
	0,005848
	0,005601
	0,005897
	0,005806
	0,006064
	0,005722
	0,005787
	0,005819
	0,005746
	0,005804
	0,005789
	0,006001
	0,006364
	0,005797
	0,005842
	0,006057
	0,005829
	0,006311
	0,005843
	0,005695
	0,005811
	0,005514
	0,005934
	0,005898
	0,005862
	0,005885
	0,005780
	0,005782
	0,005867
	0,005822
	0,005894
	0,005697
	0,005751
	0,005924
	0,005879
	0,005878
	0,005850
	0,005847
	0,005909
	0,005855
	0,005839
	0,005829
	0,005818
	0,005899
	0,005862
	0,006245
	0,005851
	0,005845
	0,005904
	0,005864
	0,005844
	0,005830
	0,005882
	0,005852
	0,005860
	0,005797
	0,005892
	0,005837
	0,005905
	0,005913
	0,005899
	0,005985
	0,005872
	0,005858
	0,005901
	0,005856
	0,005811
	0,005836
	0,005841
	0,005889
	0,005805
	0,005867
	0,005848
	0,005902
	0,005850
	0,005904
	0,005970
	0,005915
	0,005856
	0,005868
	0,005911
	0,005845
	0,005900
	0,005883
	0,005854
	0,005797
	0,005841
	0,005906
	0,005927
	0,005862
	0,005950
	0,005961
	0,005959
	0,005949
	0,005957
	0,005974
	0,005869
	0,005936
	0,005891
	0,005866
	0,005871
	0,005930
	0,005869
	0,005904
	0,005914
	0,005932
	0,005897
	0,005922
	0,005840
	0,005915
	0,005998
	0,005874
	0,005957
	0,005859
	0,005957
	0,005904
	0,005982
	0,005936
	0,005879
	0,005938
	0,005883
	0,005936
	0,005934
	0,005959
	0,005924
	0,005919
	0,005913
	0,005921
	0,005909
	0,005964
	0,005888
	0,005931
	0,005915
	0,005860
	0,005911
	0,005887
	0,005898
	0,005932
	0,005870
	0,005957
	0,005939
	0,005883
	0,005893
	0,005891
	0,005864
	0,005948
	0,005967
	0,005877
	0,005814
	0,005885
	0,005854
	0,005917
	0,005967
	0,005841
	0,005951
	0,005910
	0,005853
	0,005857
	0,005870
	0,005898
	0,005890
	0,005941
	0,005976
	0,005962
	0,005961
	0,005901
	0,005859
	0,005940
	0,005801
	0,005863
	0,005909
	0,005810
	0,005854
	0,005900
	0,005889
	0,005836
	0,005964
	0,005842
	0,005845
	0,005867
	0,005882
	0,005848
	0,005902
	0,005855
	0,005888
	0,005931
	0,005899
	0,005928
	0,005846
	0,005841
	0,005841
	0,005877
	0,005936
	0,006033
	0,005918
	0,005948
	0,005959
	0,005854
	0,005864
	0,005908
	0,005918
	0,005845
	0,005881
	0,005900
	0,005925
	0,005916
	0,005864
	0,005780
	0,005880
	0,006190
	0,005832
	0,005948
	0,005820
	0,005851
	0,005863
	0,005928
	0,005892
	0,006026
	0,005884
	0,005836
	0,005966
	0,005898
	0,005852
	0,005852
	0,005957
	0,005884
	0,005846
	0,005858
	0,005885
	0,005899
	0,005919
	0,005836
	0,005898
	0,005918
	0,005818
	0,005866
	0,005832
	0,005915
	0,005980
	0,005953
	0,005769
	0,005852
	0,005890
	0,005839
	0,005484
	0,005853
	0,005934
	0,005807
	0,005821
	0,005495
	0,005746
	0,005833
	0,005830
	0,005888
	0,005911
	0,005830
	0,005933
	0,005816
	0,005741
	0,005852
	0,005866
	0,005875
	0,005876
	0,005916
	0,005843
	0,005864
	0,005829
	0,005879
	0,005873
	0,006033
	0,005796
	0,005843
	0,005930
	0,005935
	0,005881
	0,005898
	0,005913
	0,005638
	0,005612
	0,005816
	0,005631
	0,005840
	0,005792
	0,005831
	0,005918
	0,005915
	0,005559
	0,005863
	0,005715
	0,005550
	0,005823
	0,005869
	0,005869
	0,005932
	0,005755
	0,005982
	0,005879
	0,005931
	0,005610
	0,005883
	0,005715
	0,005829
	0,005706
	0,005854
	0,005727
	0,005858
	0,005792
	0,005868
	0,005910
	0,005877
	0,006068
	0,005905
	0,006035
	0,005698
	0,005917
	0,005648
	0,005826
	0,005879
	0,005855
	0,005894
	0,005775
	0,005909
	0,005932
	0,005897
	0,005929
	0,005854
	0,005895
	0,005858
	0,005946
	0,005673
	0,005851
	0,005810
	0,005982
	0,006032
	0,005908
	0,005816
	0,005907
	0,005896
	0,005824
	0,005682
	0,005895
	0,005930
	0,005942
	0,005850
	0,005828
	0,005700
	0,006049
	0,005881
	0,005970
	0,005890
	0,005902
	0,005867
	0,005834
	0,005918
	0,005892
	0,005830
	0,005856
	0,005927
	0,006055
	0,006054
	0,005919
	0,005796
	0,005925
	0,005908
	0,005915
	0,005864
	0,005854
	0,005874
	0,005625
	0,005846
	0,005906
	0,005874
	0,006186
	0,005933
	0,005680
	0,005916
	0,005936
	0,005912
	0,005852
	0,005856
	0,005900
	0,005911
	0,005840
	0,005938
	0,005937
	0,005936
	0,005942
	0,005907
	0,005867
	0,005877
	0,005854
	0,005895
	0,005869
	0,005840
	0,005859
	0,005983
	0,005886
	0,005923
	0,005908
	0,005928
	0,005919
	0,005843
	0,005927
	0,005915
	0,005831
	0,005855
	0,005851
	0,005942
	0,005894
	0,005947
	0,005869
	0,005877
	0,005957
	0,005920
	0,005868
	0,005915
	0,005881
	0,005849
	0,005908
	0,005976
	0,005972
	0,005880
	0,005960
	0,005905
	0,005857
	0,005878
	0,005938
	0,005948
	0,005902
	0,005889
	0,005849
	0,005970
	0,005940
	0,005867
	0,005888
	0,005858
	0,005915
	0,005904
	0,005896
	0,005932
	0,005942
	0,005925
	0,005991
	0,005908
	0,006233
	0,005872
	0,005944
	0,005942
	0,005958
	0,005960
	0,005972
	0,005940
	0,005925
	0,005949
	0,005974
	0,005867
	0,005925
	0,005915
	0,005862
	0,005921
	0,005880
	0,005853
	0,005915
	0,005891
	0,005913
	0,005908
	0,005867
	0,005924
	0,005957
	0,005951
	0,005961
	0,005999
	0,005993
	0,005920
	0,005945
	0,005880
	0,005862
	0,005901
	0,005879
	0,005922
	0,005904
	0,005955
	0,005896
	0,005891
	0,005838
	0,005881
	0,005875
	0,005908
	0,005957
	0,005872
	0,005932
	0,005965
	0,005909
	0,005909
	0,005843
	0,005843
	0,005950
	0,005923
	0,005841
	0,005909
	0,005928
	0,005957
	0,005877
	0,005881
	0,005923
	0,005906
	0,005960
	0,005921
	0,005906
	0,005870
	0,005930
	0,005874
	0,005984
	0,005935
	0,005861
	0,005951
	0,005883
	0,005940
	0,005832
	0,005893
	0,005923
	0,005928
	0,005847
	0,005911
	0,005848
	0,005749
	0,005857
	0,005892
	0,005942
	0,005881
	0,006020
	0,005932
	0,005940
	0,005871
	0,005933
	0,005913
	0,005898
	0,006003
	0,005882
	0,005928
	0,005864
	0,005941
	0,005906
	0,005829
	0,005857
	0,005856
	0,005841
	0,005895
	0,005908
	0,005955
	0,005838
	0,005876
	0,005855
	0,005850
	0,005885
	0,005917
	0,005929
	0,005695
	0,005927
	0,005860
	0,005829
	0,005871
	0,005846
	0,005900
	0,005679
	0,005935
	0,005963
	0,005936
	0,005871
	0,005898
	0,006041
	0,005829
	0,005853
	0,006064
	0,006006
	0,005871
	0,006075
	0,005905
	0,005818
	0,006031
	0,006144
	0,005711
	0,005938
	0,005909
	0,005908
	0,005925
	0,006081
	0,006054
	0,005891
	0,005894
	0,005898
	0,005908
	0,005923
	0,005870
	0,005760
	0,006150
	0,005886
	0,006066
	0,005999
	0,005890
	0,005776
	0,005924
	0,005953
	0,005873
	0,006080
	0,005938
	0,006173
	0,005899
	0,005980
	0,005939
	0,006064
	0,006051
	0,005828
	0,005759
	0,005909
	0,005709
	0,006094
	0,006060
	0,006053
	0,005752
	0,005700
	0,005722
	0,006012
	0,005770
	0,005986
	0,005877
	0,005922
	0,005845
	0,005976
	0,005967
	0,006062
	0,005896
	0,005698
	0,005930
	0,005737
	0,005899
	0,005929
	0,005995
	0,005889
	0,006040
	0,006082
	0,005951
	0,005843
	0,005840
	0,005950
	0,005869
	0,005772
	0,006194
	0,005848
	0,005908
	0,006068
	0,005923
	0,005877
	0,005827
	0,005955
	0,005770
	0,005900
	0,006000
	0,005928
	0,005967
	0,005963
	0,005772
	0,006033
	0,005890
	0,005885
	0,005873
	0,005896
	0,005895
	0,005970
	0,005934
	0,005885
	0,005906
	0,006054
	0,005923
	0,005812
	0,005915
	0,005896
	0,005903
	0,005916
	0,006001
	0,005923
	0,005860
	0,005972
	0,006013
	0,005913
	0,005932
	0,005871
	0,005724
	0,005885
	0,005942
	0,006011
	0,006048
	0,005922
	0,005963
	0,005904
	0,005882
	0,005862
	0,005906
	0,005953
	0,005884
	0,005658
	0,005872
	0,005956
	0,005919
	0,005892
	0,005946
	0,005878
	0,005927
	0,005898
	0,005835
	0,005900
	0,005910
	0,005905
	0,005939
	0,005893
	0,005951
	0,005958
	0,005936
	0,005845
	0,005967
	0,005924
	0,006069
	0,006005
	0,006007
	0,005989
	0,006002
	0,006029
	0,006009
	0,006024
	0,006001
	0,005955
	0,006011
	0,005982
	0,005990
	0,006011
	0,006049
	0,005890
	0,005984
	0,005972
	0,005999
	0,005983
	0,005939
	0,005993
	0,005885
	0,005934
	0,005871
	0,005991
	0,005978
	0,005990
	0,005986
	0,005963
	0,005962
	0,005957
	0,005919
	0,005879
	0,005938
	0,005970
	0,005942
	0,005926
	0,005912
	0,005922
	0,005921
	0,005959
	0,005957
	0,005907
	0,005877
	0,005946
	0,005950
	0,005994
	0,005938
	0,005875
	0,005854
	0,005941
	0,005904
	0,005981
	0,005899
	0,005929
	0,005905
	0,005818
	0,005868
	0,005913
	0,005948
	0,005879
	0,005894
	0,005945
	0,005928
	0,005879
	0,005887
	0,005915
	0,005830
	0,005885
	0,005955
	0,005854
	0,005885
	0,005928
	0,005875
	0,005853
	0,005947
	0,005923
	0,005908
	0,005867
	0,005870
	0,005862
	0,005824
	0,005844
	0,005908
	0,005900
	0,005957
	0,005922
	0,005845
	0,005857
	0,005892
	0,005812
	0,005894
	0,005876
	0,005864
	0,005837
	0,005938
	0,005877
	0,005843
	0,005886
	0,005791
	0,005877
	0,005993
	0,005847
	0,005822
	0,005738
	0,005907
	0,005883
	0,005894
	0,005878
	0,005819
	0,005875
	0,005850
	0,005906
	0,005963
	0,005885
	0,005858
	0,005906
	0,005822
	0,005927
	0,005878
	0,005922
	0,005825
	0,005902
	0,005985
	0,005813
	0,005953
	0,005888
	0,005913
	0,005837
	0,005942
	0,005839
	0,005949
	0,005862
	0,005885
	0,005859
	0,005840
	0,005888
	0,005832
	0,005938
	0,005905
	0,005814
	0,005920
	0,005829
	0,005860
	0,005848
	0,005820
	0,005836
	0,005841
	0,005886
	0,005819
	0,005895
	0,005887
	0,005873
	0,005817
	0,005907
	0,005898
	0,005803
	0,005829
	0,005906
	0,005841
	0,005835
	0,005834
	0,005869
	0,005880
	0,005739
	0,005785
	0,005808
	0,005738
	0,005633
	0,005850
	0,005734

