LabVIEW Measurement	
Writer_Version	2
Reader_Version	2
Separator	Tab
Decimal_Separator	,
Multi_Headings	Yes
X_Columns	No
Time_Pref	Relative
Operator	admin
Date	2025/10/17
Time	11:08:01,4257903099060058594
***End_of_Header***	
	
Channels	1	
Samples	1000	
Date	2025/10/17	
Time	11:08:01,4257903099060058594	
X_Dimension	Time	
X0	0,0000000000000000E+0	
Delta_X	1,000000	
***End_of_Header***		
X_Value	Untitled	Comment
	0,005812
	0,005850
	0,005751
	0,005757
	0,005918
	0,005957
	0,005926
	0,005930
	0,005886
	0,006048
	0,005924
	0,005900
	0,005940
	0,005891
	0,005877
	0,005822
	0,005894
	0,005895
	0,005902
	0,005929
	0,005873
	0,005936
	0,005806
	0,005907
	0,005883
	0,005898
	0,005916
	0,005931
	0,005839
	0,005915
	0,006184
	0,005969
	0,005924
	0,006096
	0,005862
	0,005912
	0,005969
	0,006060
	0,005876
	0,006028
	0,005934
	0,005839
	0,005927
	0,005933
	0,005923
	0,005864
	0,005999
	0,006156
	0,005913
	0,005928
	0,005876
	0,005862
	0,006004
	0,005827
	0,005856
	0,005967
	0,005864
	0,005814
	0,006085
	0,005938
	0,005899
	0,005909
	0,005894
	0,005874
	0,005820
	0,006012
	0,005755
	0,005865
	0,005828
	0,005924
	0,005925
	0,005909
	0,005860
	0,005949
	0,005927
	0,005844
	0,005860
	0,005919
	0,005860
	0,005796
	0,005884
	0,005866
	0,005792
	0,005861
	0,005892
	0,005803
	0,005754
	0,005803
	0,005951
	0,005856
	0,005813
	0,005856
	0,005827
	0,005835
	0,005909
	0,005875
	0,005850
	0,005872
	0,005977
	0,005867
	0,005832
	0,005861
	0,005851
	0,005803
	0,005853
	0,005796
	0,005817
	0,005842
	0,005885
	0,005850
	0,005808
	0,005835
	0,005783
	0,005778
	0,005741
	0,005877
	0,005733
	0,005719
	0,005795
	0,005830
	0,005781
	0,005804
	0,005734
	0,005770
	0,005865
	0,005734
	0,005743
	0,005791
	0,005793
	0,005778
	0,005848
	0,005864
	0,005858
	0,005806
	0,005832
	0,005790
	0,005818
	0,005787
	0,005770
	0,005867
	0,005749
	0,005825
	0,005814
	0,005722
	0,005713
	0,005783
	0,005784
	0,005778
	0,005830
	0,005814
	0,005837
	0,005759
	0,005774
	0,005740
	0,005715
	0,005971
	0,005977
	0,006047
	0,005845
	0,005674
	0,005775
	0,005843
	0,005661
	0,005629
	0,005807
	0,005820
	0,005798
	0,005845
	0,005839
	0,005810
	0,005812
	0,005825
	0,005754
	0,005774
	0,005853
	0,005779
	0,005796
	0,005850
	0,005758
	0,005829
	0,005870
	0,005709
	0,005764
	0,005827
	0,005804
	0,005866
	0,005889
	0,005793
	0,005747
	0,005837
	0,005796
	0,005756
	0,005927
	0,005835
	0,005877
	0,005809
	0,005750
	0,005816
	0,005843
	0,005825
	0,005756
	0,005822
	0,005864
	0,005847
	0,005822
	0,005812
	0,005798
	0,005837
	0,005783
	0,005794
	0,005797
	0,005767
	0,005744
	0,005791
	0,005839
	0,005786
	0,005841
	0,005842
	0,005841
	0,005867
	0,005852
	0,005846
	0,005885
	0,005913
	0,005816
	0,005822
	0,005816
	0,005858
	0,005781
	0,005874
	0,005847
	0,005827
	0,005770
	0,005886
	0,005946
	0,005812
	0,005831
	0,005923
	0,005825
	0,005852
	0,005921
	0,005862
	0,005840
	0,005860
	0,005896
	0,005883
	0,005849
	0,005810
	0,005869
	0,005894
	0,005873
	0,005929
	0,005871
	0,005919
	0,005906
	0,005893
	0,005999
	0,005875
	0,005945
	0,005880
	0,005964
	0,005964
	0,005939
	0,005923
	0,005908
	0,005885
	0,005949
	0,005865
	0,005912
	0,005959
	0,005873
	0,005912
	0,005867
	0,005938
	0,005876
	0,005898
	0,005848
	0,005873
	0,005951
	0,005890
	0,005871
	0,005887
	0,005940
	0,005917
	0,005841
	0,005821
	0,005980
	0,005934
	0,005877
	0,005793
	0,005962
	0,005940
	0,005820
	0,005823
	0,005912
	0,005928
	0,005963
	0,005901
	0,005916
	0,005894
	0,005906
	0,005816
	0,005890
	0,005887
	0,005862
	0,005942
	0,005884
	0,005873
	0,005820
	0,005854
	0,005906
	0,005885
	0,005878
	0,005915
	0,005886
	0,005831
	0,005841
	0,005885
	0,005843
	0,005884
	0,005869
	0,005899
	0,005846
	0,005938
	0,005909
	0,005852
	0,005897
	0,005921
	0,005921
	0,005882
	0,005825
	0,005890
	0,005905
	0,005860
	0,005905
	0,005900
	0,006012
	0,005857
	0,005907
	0,005889
	0,005913
	0,005913
	0,005921
	0,005866
	0,005942
	0,005899
	0,005910
	0,005928
	0,005944
	0,005925
	0,005898
	0,005941
	0,005910
	0,005923
	0,005877
	0,005891
	0,005891
	0,005890
	0,005982
	0,005909
	0,005948
	0,005903
	0,005898
	0,005892
	0,005857
	0,005923
	0,005841
	0,005901
	0,005845
	0,005914
	0,005928
	0,005962
	0,005978
	0,005879
	0,005903
	0,005854
	0,005900
	0,005868
	0,005860
	0,005862
	0,005946
	0,005881
	0,005948
	0,005929
	0,005705
	0,005768
	0,005943
	0,005900
	0,005881
	0,005846
	0,005852
	0,005844
	0,005804
	0,005878
	0,005904
	0,005919
	0,005854
	0,005849
	0,005913
	0,005912
	0,005915
	0,005845
	0,005913
	0,005873
	0,005918
	0,005854
	0,005900
	0,005858
	0,005957
	0,005870
	0,005852
	0,005861
	0,005896
	0,005821
	0,005900
	0,005849
	0,005940
	0,005920
	0,005833
	0,005906
	0,005741
	0,005784
	0,005877
	0,005913
	0,005870
	0,005858
	0,005899
	0,005933
	0,005902
	0,005899
	0,005810
	0,005917
	0,005866
	0,005860
	0,005879
	0,005904
	0,005821
	0,005883
	0,005850
	0,005873
	0,005835
	0,005832
	0,005897
	0,005833
	0,005928
	0,005917
	0,005879
	0,005882
	0,005863
	0,005848
	0,005780
	0,005867
	0,005866
	0,005894
	0,005843
	0,005741
	0,005782
	0,005815
	0,005821
	0,005854
	0,005867
	0,005863
	0,005886
	0,005838
	0,005837
	0,005819
	0,005938
	0,005797
	0,005796
	0,005820
	0,005846
	0,005877
	0,005801
	0,005890
	0,005788
	0,005854
	0,005839
	0,005788
	0,005793
	0,005831
	0,005751
	0,005761
	0,005868
	0,005778
	0,005802
	0,005821
	0,005866
	0,005852
	0,005857
	0,005809
	0,005788
	0,005802
	0,005810
	0,005781
	0,005818
	0,005915
	0,005896
	0,005858
	0,005782
	0,005817
	0,005855
	0,005854
	0,005753
	0,005841
	0,005778
	0,005765
	0,005846
	0,005780
	0,005852
	0,005821
	0,005839
	0,005833
	0,005761
	0,005755
	0,005825
	0,005768
	0,005812
	0,005789
	0,005866
	0,005808
	0,005839
	0,005800
	0,005854
	0,005735
	0,005810
	0,005833
	0,005814
	0,005803
	0,005849
	0,005741
	0,005828
	0,005824
	0,005772
	0,005717
	0,005836
	0,005742
	0,005729
	0,005814
	0,005774
	0,005804
	0,005671
	0,005715
	0,005728
	0,005743
	0,005731
	0,005722
	0,005717
	0,005758
	0,005731
	0,005758
	0,005825
	0,005759
	0,005806
	0,005753
	0,005742
	0,005667
	0,005713
	0,005781
	0,005817
	0,005771
	0,005703
	0,005709
	0,005703
	0,005727
	0,005730
	0,005706
	0,005680
	0,005709
	0,005750
	0,005726
	0,005697
	0,005732
	0,005701
	0,005671
	0,005661
	0,005686
	0,005745
	0,005734
	0,005717
	0,005728
	0,005701
	0,005703
	0,005661
	0,005708
	0,005682
	0,005754
	0,005678
	0,005703
	0,005686
	0,005742
	0,005719
	0,005675
	0,005626
	0,005647
	0,005711
	0,005732
	0,005753
	0,005691
	0,005696
	0,005652
	0,005752
	0,005698
	0,005705
	0,005692
	0,005696
	0,005681
	0,005651
	0,005682
	0,005642
	0,005673
	0,005680
	0,005726
	0,005799
	0,005774
	0,005684
	0,005680
	0,005648
	0,005674
	0,005703
	0,005722
	0,005737
	0,005768
	0,005707
	0,005677
	0,005702
	0,005761
	0,005745
	0,005726
	0,005720
	0,005739
	0,005707
	0,005708
	0,005728
	0,005774
	0,005739
	0,005705
	0,005711
	0,005740
	0,005783
	0,005739
	0,005662
	0,005764
	0,005827
	0,005704
	0,005748
	0,005804
	0,005722
	0,005716
	0,005751
	0,005716
	0,005759
	0,005728
	0,005741
	0,005737
	0,005749
	0,005701
	0,005879
	0,005780
	0,005753
	0,005749
	0,005713
	0,005725
	0,005691
	0,005753
	0,005655
	0,005717
	0,005721
	0,005734
	0,005749
	0,005743
	0,005717
	0,005726
	0,005803
	0,005803
	0,005772
	0,005827
	0,005799
	0,005795
	0,005785
	0,005820
	0,005770
	0,005765
	0,005722
	0,005756
	0,005705
	0,005724
	0,005778
	0,005802
	0,005848
	0,005787
	0,005852
	0,005764
	0,005840
	0,005865
	0,005829
	0,005799
	0,005866
	0,005818
	0,005827
	0,005761
	0,005703
	0,005804
	0,005850
	0,005857
	0,005818
	0,005824
	0,005770
	0,005824
	0,005822
	0,005845
	0,005836
	0,005904
	0,005852
	0,005829
	0,005890
	0,005829
	0,005810
	0,005859
	0,005860
	0,005839
	0,005830
	0,005763
	0,005815
	0,005848
	0,005869
	0,005892
	0,005890
	0,005879
	0,005931
	0,005841
	0,005835
	0,005801
	0,005951
	0,005896
	0,005955
	0,005839
	0,005885
	0,005848
	0,005892
	0,005875
	0,005904
	0,005861
	0,005913
	0,005839
	0,005831
	0,005879
	0,005876
	0,005947
	0,005928
	0,005879
	0,005925
	0,005840
	0,005890
	0,005888
	0,005986
	0,005888
	0,005875
	0,005833
	0,005707
	0,005911
	0,005927
	0,005858
	0,005789
	0,005746
	0,005898
	0,005931
	0,005871
	0,005934
	0,005746
	0,005907
	0,005948
	0,005949
	0,005952
	0,005928
	0,005825
	0,005885
	0,005835
	0,005887
	0,006230
	0,005929
	0,005869
	0,005799
	0,005850
	0,005898
	0,005881
	0,005918
	0,005845
	0,005917
	0,005854
	0,005837
	0,005846
	0,005895
	0,005888
	0,005964
	0,005834
	0,005820
	0,005919
	0,005880
	0,005882
	0,005870
	0,005893
	0,005923
	0,005896
	0,005893
	0,005885
	0,005854
	0,006032
	0,006008
	0,005825
	0,005843
	0,006041
	0,005994
	0,005955
	0,006011
	0,006012
	0,005744
	0,005834
	0,006133
	0,005787
	0,005543
	0,005969
	0,005774
	0,005804
	0,005844
	0,005904
	0,005923
	0,005982
	0,005692
	0,005824
	0,005675
	0,005837
	0,005877
	0,005846
	0,006022
	0,005793
	0,005801
	0,005602
	0,005803
	0,006085
	0,005876
	0,005753
	0,005685
	0,005841
	0,005940
	0,005889
	0,005918
	0,005892
	0,005783
	0,006171
	0,005545
	0,005824
	0,005850
	0,005508
	0,006022
	0,005853
	0,005887
	0,005863
	0,005881
	0,005757
	0,005995
	0,005886
	0,005697
	0,005684
	0,005833
	0,005864
	0,005785
	0,006101
	0,005841
	0,005848
	0,005883
	0,005699
	0,005518
	0,006224
	0,005984
	0,005751
	0,005963
	0,005986
	0,005760
	0,006018
	0,005635
	0,005859
	0,005658
	0,005906
	0,005906
	0,005825
	0,005955
	0,005683
	0,005866
	0,005893
	0,005778
	0,005652
	0,006041
	0,006202
	0,005602
	0,005800
	0,005592
	0,006194
	0,005787
	0,005967
	0,005799
	0,005991
	0,006035
	0,005921
	0,006165
	0,005969
	0,006068
	0,005577
	0,005703
	0,005871
	0,005881
	0,005959
	0,005728
	0,005770
	0,005616
	0,005988
	0,005954
	0,005388
	0,005576
	0,006079
	0,006072
	0,006089
	0,005942
	0,005889
	0,005659
	0,006018
	0,005813
	0,005908
	0,005617
	0,006066
	0,006032
	0,005869
	0,005953
	0,006222
	0,005976
	0,005818
	0,006037
	0,005715
	0,005836
	0,006025
	0,005928
	0,005970
	0,005828
	0,006013
	0,005764
	0,005831
	0,005794
	0,006009
	0,005872
	0,005919
	0,005714
	0,006030
	0,006241
	0,006008
	0,005997
	0,005722
	0,005560
	0,005856
	0,005928
	0,005906
	0,006016
	0,005864
	0,006093
	0,005702
	0,005762
	0,005671
	0,005975
	0,005858
	0,005916
	0,006000
	0,006003
	0,005917
	0,006309
	0,005583
	0,005789
	0,005936
	0,006209
	0,005902
	0,005957
	0,006311
	0,005927
	0,005894
	0,005929
	0,005969
	0,005929
	0,005841
	0,005944
	0,005890
	0,005608
	0,006081
	0,005972
	0,006183
	0,006016
	0,005625
	0,005887
	0,005862
	0,005931
	0,005890
	0,005886
	0,005867
	0,005953

